# Injector: A210677 Sandia
# https://ecn.sandia.gov/cvdata/assets/datafiles/pen/bkldaAL1-pen.txt
# time ASI [ms] maximum vapor penetration [mm] standard deviation [mm] error &plusmn;2sigma/sqrt(N) [mm]
-0.01 0 0 0
-0.005 0 0 0
0 0 0 0
0.005 0.4463 0.66317 0.66317
0.01 1.0396 1.1416 1.1416
0.015 2.3894 0.96476 0.96476
0.02 3.8349 0.66621 0.66621
0.025 5.2125 0.28486 0.28486
0.03 6.5066 0.18386 0.18386
0.035 7.4402 0.43485 0.43485
0.04 8.2129 0.41726 0.41726
0.045 8.9625 0.40315 0.40315
0.05 9.7352 0.35321 0.35321
0.055 10.432 0.32812 0.32812
0.06 11.09 0.31777 0.31777
0.065 11.714 0.39696 0.39696
0.07 12.225 0.42117 0.42117
0.075 12.743 0.41694 0.41694
0.08 13.236 0.38812 0.38812
0.085 13.72 0.3824 0.3824
0.09 14.195 0.41191 0.41191
0.095 14.659 0.46473 0.46473
0.1 15.071 0.50043 0.50043
0.105 15.477 0.52774 0.52774
0.11 15.883 0.51798 0.51798
0.115 16.25 0.52014 0.52014
0.12 16.558 0.52739 0.52739
0.125 16.846 0.51685 0.51685
0.13 17.107 0.54369 0.54369
0.135 17.376 0.56689 0.56689
0.14 17.631 0.58629 0.58629
0.145 17.881 0.60435 0.60435
0.15 18.141 0.61976 0.61976
0.155 18.406 0.63988 0.63988
0.16 18.713 0.61696 0.61696
0.165 19.048 0.58843 0.58843
0.17 19.389 0.56791 0.56791
0.175 19.75 0.53951 0.53951
0.18 20.111 0.50628 0.50628
0.185 20.416 0.45028 0.45028
0.19 20.713 0.40841 0.40841
0.195 20.963 0.32083 0.32083
0.2 21.209 0.24406 0.24406
0.205 21.462 0.18116 0.18116
0.21 21.731 0.16357 0.16357
0.215 22.028 0.21172 0.21172
0.22 22.315 0.28181 0.28181
0.225 22.593 0.29808 0.29808
0.23 22.86 0.31466 0.31466
0.235 23.105 0.30355 0.30355
0.24 23.335 0.27727 0.27727
0.245 23.576 0.23998 0.23998
0.25 23.822 0.20886 0.20886
0.255 24.074 0.20515 0.20515
0.26 24.337 0.22753 0.22753
0.265 24.592 0.25605 0.25605
0.27 24.839 0.25499 0.25499
0.275 25.086 0.25819 0.25819
0.28 25.317 0.25364 0.25364
0.285 25.552 0.25256 0.25256
0.29 25.804 0.25583 0.25583
0.295 26.056 0.28434 0.28434
0.3 26.304 0.32586 0.32586
0.305 26.537 0.3718 0.3718
0.31 26.738 0.43312 0.43312
0.315 26.917 0.48532 0.48532
0.32 27.108 0.53588 0.53588
0.325 27.32 0.59174 0.59174
0.33 27.506 0.62411 0.62411
0.335 27.682 0.65512 0.65512
0.34 27.858 0.69559 0.69559
0.345 28.033 0.7444 0.7444
0.35 28.226 0.79444 0.79444
0.355 28.461 0.7758 0.7758
0.36 28.691 0.76194 0.76194
0.365 28.917 0.75101 0.75101
0.37 29.129 0.7367 0.7367
0.375 29.31 0.75456 0.75456
0.38 29.49 0.78028 0.78028
0.385 29.655 0.7934 0.7934
0.39 29.816 0.80533 0.80533
0.395 29.989 0.79949 0.79949
0.4 30.166 0.78954 0.78954
0.405 30.344 0.78397 0.78397
0.41 30.519 0.7813 0.7813
0.415 30.682 0.77443 0.77443
0.42 30.891 0.69689 0.69689
0.425 31.104 0.6197 0.6197
0.43 31.316 0.55145 0.55145
0.435 31.528 0.49949 0.49949
0.44 31.709 0.49388 0.49388
0.445 31.885 0.49948 0.49948
0.45 32.062 0.51414 0.51414
0.455 32.239 0.535 0.535
0.46 32.389 0.5796 0.5796
0.465 32.515 0.62289 0.62289
0.47 32.652 0.68402 0.68402
0.475 32.778 0.73794 0.73794
0.48 32.934 0.7629 0.7629
0.485 33.112 0.78394 0.78394
0.49 33.267 0.7667 0.7667
0.495 33.409 0.72633 0.72633
0.5 33.567 0.66779 0.66779
0.505 33.727 0.59146 0.59146
0.51 33.893 0.53657 0.53657
0.515 34.068 0.51239 0.51239
0.52 34.242 0.50318 0.50318
0.525 34.414 0.50583 0.50583
0.53 34.59 0.5117 0.5117
0.535 34.757 0.48606 0.48606
0.54 34.933 0.457 0.457
0.545 35.067 0.44457 0.44457
0.55 35.211 0.44434 0.44434
0.555 35.355 0.46714 0.46714
0.56 35.498 0.5099 0.5099
0.565 35.662 0.51666 0.51666
0.57 35.804 0.49373 0.49373
0.575 35.946 0.47453 0.47453
0.58 36.069 0.46446 0.46446
0.585 36.185 0.42837 0.42837
0.59 36.326 0.36649 0.36649
0.595 36.475 0.31933 0.31933
0.6 36.634 0.29286 0.29286
0.605 36.792 0.28593 0.28593
0.61 36.933 0.30282 0.30282
0.615 37.073 0.32455 0.32455
0.62 37.204 0.31972 0.31972
0.625 37.348 0.29851 0.29851
0.63 37.498 0.29451 0.29451
0.635 37.66 0.32204 0.32204
0.64 37.822 0.36329 0.36329
0.645 37.984 0.4142 0.4142
0.65 38.145 0.47216 0.47216
0.655 38.306 0.53486 0.53486
0.66 38.455 0.60825 0.60825
0.665 38.596 0.69266 0.69266
0.67 38.748 0.77033 0.77033
0.675 38.874 0.73451 0.73451
0.68 39.004 0.69716 0.69716
0.685 39.145 0.65878 0.65878
0.69 39.279 0.63046 0.63046
0.695 39.398 0.62176 0.62176
0.7 39.523 0.62367 0.62367
0.705 39.64 0.62755 0.62755
0.71 39.75 0.63495 0.63495
0.715 39.865 0.65233 0.65233
0.72 39.99 0.68473 0.68473
0.725 40.12 0.71848 0.71848
0.73 40.263 0.75174 0.75174
0.735 40.394 0.78651 0.78651
0.74 40.52 0.82687 0.82687
0.745 40.646 0.87278 0.87278
0.75 40.77 0.92307 0.92307
0.755 40.885 0.94359 0.94359
0.76 40.993 0.89853 0.89853
0.765 41.092 0.8796 0.8796
0.77 41.17 0.89272 0.89272
0.775 41.246 0.9189 0.9189
0.78 41.343 0.97249 0.97249
0.785 41.451 1.0324 1.0324
0.79 41.593 1.0178 1.0178
0.795 41.735 1.0053 1.0053
0.8 41.855 0.97855 0.97855
0.805 41.963 0.9399 0.9399
0.81 42.044 0.96715 0.96715
0.815 42.134 1.0128 1.0128
0.82 42.247 1.0636 1.0636
0.825 42.373 1.1359 1.1359
0.83 42.51 1.1909 1.1909
0.835 42.652 1.2379 1.2379
0.84 42.766 1.2626 1.2626
0.845 42.89 1.2798 1.2798
0.85 43.037 1.2545 1.2545
0.855 43.202 1.1677 1.1677
0.86 43.372 1.0846 1.0846
0.865 43.54 0.97284 0.97284
0.87 43.696 0.85354 0.85354
0.875 43.811 0.84425 0.84425
0.88 43.935 0.84782 0.84782
0.885 44.043 0.85308 0.85308
0.89 44.151 0.86488 0.86488
0.895 44.243 0.91583 0.91583
0.9 44.333 0.97809 0.97809
0.905 44.417 1.0362 1.0362
0.91 44.542 1.1026 1.1026
0.915 44.678 1.1496 1.1496
0.92 44.819 1.1855 1.1855
0.925 44.966 1.2277 1.2277
0.93 45.125 1.2778 1.2778
0.935 45.292 1.3154 1.3154
0.94 45.458 1.327 1.327
0.945 45.615 1.3354 1.3354
0.95 45.73 1.3118 1.3118
0.955 45.834 1.2806 1.2806
0.96 45.913 1.3224 1.3224
0.965 45.999 1.3752 1.3752
0.97 46.071 1.4344 1.4344
0.975 46.143 1.4955 1.4955
0.98 46.256 1.4662 1.4662
0.985 46.364 1.4083 1.4083
0.99 46.507 1.3342 1.3342
0.995 46.668 1.275 1.275
1 46.806 1.2592 1.2592
1.005 46.947 1.2868 1.2868
1.01 47.062 1.3304 1.3304
1.015 47.135 1.3437 1.3437
1.02 47.205 1.3585 1.3585
1.025 47.265 1.3645 1.3645
1.03 47.324 1.3589 1.3589
1.035 47.382 1.3343 1.3343
1.04 47.436 1.3094 1.3094
1.045 47.498 1.2987 1.2987
1.05 47.573 1.3095 1.3095
1.055 47.687 1.3233 1.3233
1.06 47.849 1.3549 1.3549
1.065 48.004 1.3783 1.3783
1.07 48.129 1.3598 1.3598
1.075 48.229 1.3657 1.3657
1.08 48.299 1.3556 1.3556
1.085 48.369 1.3494 1.3494
1.09 48.474 1.392 1.392
1.095 48.586 1.4238 1.4238
1.1 48.674 1.4358 1.4358
1.105 48.761 1.4499 1.4499
1.11 48.838 1.4521 1.4521
1.115 48.912 1.4394 1.4394
1.12 49.046 1.4434 1.4434
1.125 49.203 1.4751 1.4751
1.13 49.361 1.5228 1.5228
1.135 49.518 1.5862 1.5862
1.14 49.68 1.6223 1.6223
1.145 49.788 1.5888 1.5888
1.15 49.896 1.5582 1.5582
1.155 50.004 1.5307 1.5307
1.16 50.108 1.5185 1.5185
1.165 50.232 1.5276 1.5276
1.17 50.366 1.5182 1.5182
1.175 50.524 1.5176 1.5176
1.18 50.671 1.5147 1.5147
1.185 50.777 1.4873 1.4873
1.19 50.867 1.4908 1.4908
1.195 50.948 1.5493 1.5493
1.2 51.035 1.6212 1.6212
1.205 51.12 1.6952 1.6952
1.21 51.21 1.7726 1.7726
1.215 51.328 1.7813 1.7813
1.22 51.435 1.7762 1.7762
1.225 51.559 1.7765 1.7765
1.23 51.684 1.7788 1.7788
1.235 51.803 1.7696 1.7696
1.24 51.893 1.7094 1.7094
1.245 51.972 1.649 1.649
1.25 52.062 1.5962 1.5962
1.255 52.141 1.5641 1.5641
1.26 52.212 1.5451 1.5451
1.265 52.289 1.5291 1.5291
1.27 52.345 1.4883 1.4883
1.275 52.398 1.4465 1.4465
1.28 52.482 1.4607 1.4607
1.285 52.591 1.5154 1.5154
1.29 52.741 1.5835 1.5835
1.295 52.9 1.6564 1.6564
1.3 53.039 1.6896 1.6896
1.305 53.145 1.6661 1.6661
1.31 53.24 1.639 1.639
1.315 53.311 1.6016 1.6016
1.32 53.402 1.5492 1.5492
1.325 53.51 1.5193 1.5193
1.33 53.626 1.4746 1.4746
1.335 53.769 1.4375 1.4375
1.34 53.889 1.437 1.437
1.345 53.995 1.4585 1.4585
1.35 54.082 1.4914 1.4914
1.355 54.119 1.5094 1.5094
1.36 54.168 1.502 1.502
1.365 54.237 1.4651 1.4651
1.37 54.305 1.4349 1.4349
1.375 54.418 1.4257 1.4257
1.38 54.541 1.4237 1.4237
1.385 54.672 1.4361 1.4361
1.39 54.817 1.4688 1.4688
1.395 54.961 1.4839 1.4839
1.4 55.105 1.5007 1.5007
1.405 55.226 1.5254 1.5254
1.41 55.316 1.505 1.505
1.415 55.403 1.4853 1.4853
1.42 55.474 1.4558 1.4558
1.425 55.545 1.4269 1.4269
1.43 55.633 1.4254 1.4254
1.435 55.721 1.4248 1.4248
1.44 55.809 1.4244 1.4244
1.445 55.89 1.4346 1.4346
1.45 55.96 1.4596 1.4596
1.455 56.034 1.4858 1.4858
1.46 56.135 1.525 1.525
1.465 56.242 1.5688 1.5688
1.47 56.366 1.5881 1.5881
1.475 56.488 1.611 1.611
1.48 56.556 1.6355 1.6355
1.485 56.61 1.6504 1.6504
1.49 56.679 1.6457 1.6457
1.495 56.751 1.6402 1.6402
1.5 56.852 1.618 1.618
1.505 56.959 1.5957 1.5957
1.51 57.054 1.5877 1.5877
1.515 57.16 1.6111 1.6111
1.52 57.284 1.6031 1.6031
1.525 57.406 1.587 1.587
1.53 57.527 1.5772 1.5772
1.535 57.628 1.5405 1.5405
1.54 57.707 1.4951 1.4951
1.545 57.783 1.451 1.451
1.55 57.854 1.4046 1.4046
1.555 57.94 1.382 1.382
1.56 58.046 1.3992 1.3992
1.565 58.093 1.4379 1.4379
1.57 58.146 1.4905 1.4905
1.575 58.193 1.5355 1.5355
1.58 58.211 1.5331 1.5331
1.585 58.285 1.5044 1.5044
1.59 58.392 1.4836 1.4836
1.595 58.498 1.4663 1.4663
1.6 58.621 1.4788 1.4788
1.605 58.737 1.5067 1.5067
1.61 58.846 1.5255 1.5255
1.615 58.952 1.5496 1.5496
1.62 59.059 1.5807 1.5807
1.625 59.174 1.6 1.6
1.63 59.28 1.5761 1.5761
1.635 59.386 1.5528 1.5528
1.64 59.493 1.5291 1.5291
1.645 59.593 1.5146 1.5146
1.65 59.647 1.5598 1.5598
1.655 59.701 1.6082 1.6082
1.66 59.74 1.6771 1.6771
1.665 59.775 1.7503 1.7503
1.67 59.851 1.7493 1.7493
1.675 59.941 1.7588 1.7588
1.68 60.065 1.7275 1.7275
1.685 60.208 1.6737 1.6737
1.69 60.35 1.6262 1.6262
1.695 60.441 1.5256 1.5256
1.7 60.505 1.4516 1.4516
1.705 60.549 1.4334 1.4334
1.71 60.6 1.4415 1.4415
1.715 60.698 1.4832 1.4832
1.72 60.806 1.5337 1.5337
1.725 60.923 1.5515 1.5515
1.73 61.03 1.5517 1.5517
1.735 61.115 1.5477 1.5477
1.74 61.187 1.537 1.537
1.745 61.244 1.5467 1.5467
1.75 61.298 1.5617 1.5617
1.755 61.383 1.5646 1.5646
1.76 61.489 1.5774 1.5774
1.765 61.606 1.5757 1.5757
1.77 61.713 1.5355 1.5355
1.775 61.812 1.4965 1.4965
1.78 61.901 1.455 1.455
1.785 61.996 1.4026 1.4026
1.79 62.111 1.352 1.352
1.795 62.223 1.3206 1.3206
1.8 62.323 1.3109 1.3109
1.805 62.427 1.3077 1.3077
1.81 62.522 1.3439 1.3439
1.815 62.631 1.3967 1.3967
1.82 62.727 1.4236 1.4236
1.825 62.799 1.4396 1.4396
1.83 62.834 1.4908 1.4908
1.835 62.834 1.5031 1.5031
1.84 62.853 1.5385 1.5385
1.845 62.887 1.5867 1.5867
1.85 62.955 1.5867 1.5867
1.855 63.059 1.5888 1.5888
1.86 63.173 1.562 1.562
1.865 63.327 1.5167 1.5167
1.87 63.478 1.4961 1.4961
1.875 63.608 1.49 1.49
1.88 63.728 1.4941 1.4941
1.885 63.801 1.4737 1.4737
1.89 63.854 1.436 1.436
1.895 63.915 1.4063 1.4063
1.9 63.987 1.391 1.391
1.905 64.065 1.3813 1.3813
1.91 64.155 1.3813 1.3813
1.915 64.244 1.3813 1.3813
1.92 64.334 1.3813 1.3813
1.925 64.411 1.3753 1.3753
1.93 64.483 1.3678 1.3678
1.935 64.567 1.342 1.342
1.94 64.673 1.3303 1.3303
1.945 64.784 1.3239 1.3239
1.95 64.907 1.3218 1.3218
1.955 65.022 1.3336 1.3336
1.96 65.106 1.329 1.329
1.965 65.173 1.3085 1.3085
1.97 65.243 1.3033 1.3033
1.975 65.313 1.3032 1.3032
1.98 65.38 1.3511 1.3511
1.985 65.472 1.4279 1.4279
1.99 65.551 1.4715 1.4715
1.995 65.605 1.502 1.502
2 65.666 1.5046 1.5046
2.005 65.702 1.462 1.462
2.01 65.733 1.4166 1.4166
2.015 65.805 1.3838 1.3838
2.02 65.899 1.3196 1.3196
2.025 66.024 1.2677 1.2677
2.03 66.185 1.1969 1.1969
2.035 66.346 1.1051 1.1051
2.04 66.488 1.0384 1.0384
2.045 66.6 0.99053 0.99053
2.05 66.683 0.95196 0.95196
2.055 66.7 0.92554 0.92554
2.06 66.716 0.90193 0.90193
2.065 66.705 0.94065 0.94065
2.07 66.708 0.99627 0.99627
2.075 66.764 1.0614 1.0614
2.08 66.836 1.1338 1.1338
2.085 66.95 1.1269 1.1269
2.09 67.058 1.0863 1.0863
2.095 67.142 1.024 1.024
2.1 67.232 0.9545 0.9545
2.105 67.31 0.9077 0.9077
2.11 67.382 0.87655 0.87655
2.115 67.472 0.84473 0.84473
2.12 67.544 0.80086 0.80086
2.125 67.622 0.74592 0.74592
2.13 67.719 0.68931 0.68931
2.135 67.818 0.64744 0.64744
2.14 67.906 0.61471 0.61471
2.145 67.994 0.58752 0.58752
2.15 68.066 0.59155 0.59155
2.155 68.14 0.59729 0.59729
2.16 68.214 0.58435 0.58435
2.165 68.285 0.57906 0.57906
2.17 68.324 0.6275 0.6275
2.175 68.342 0.67554 0.67554
2.18 68.326 0.70528 0.70528
2.185 68.344 0.72739 0.72739
2.19 68.395 0.6975 0.6975
2.195 68.5 0.68562 0.68562
2.2 68.633 0.66442 0.66442
2.205 68.722 0.63083 0.63083
2.21 68.8 0.63401 0.63401
2.215 68.858 0.65556 0.65556
2.22 68.903 0.67412 0.67412
2.225 68.968 0.67349 0.67349
2.23 69.039 0.6722 0.6722
2.235 69.121 0.63515 0.63515
2.24 69.194 0.57898 0.57898
2.245 69.284 0.52078 0.52078
2.25 69.374 0.4637 0.4637
2.255 69.448 0.42151 0.42151
2.26 69.52 0.38214 0.38214
2.265 69.601 0.34134 0.34134
2.27 69.672 0.31783 0.31783
2.275 69.742 0.30979 0.30979
2.28 69.829 0.34487 0.34487
2.285 69.923 0.38078 0.38078
2.29 70.028 0.38413 0.38413
2.295 70.125 0.39649 0.39649
2.3 70.213 0.42538 0.42538
2.305 70.294 0.45482 0.45482
2.31 70.335 0.48485 0.48485
2.315 70.371 0.52266 0.52266
2.32 70.418 0.53139 0.53139
2.325 70.452 0.52815 0.52815
2.33 70.47 0.50992 0.50992
2.335 70.488 0.49429 0.49429
2.34 70.528 0.48129 0.48129
2.345 70.6 0.5147 0.5147
2.35 70.717 0.56151 0.56151
2.355 70.877 0.55051 0.55051
2.36 71.014 0.5435 0.5435
2.365 71.103 0.48947 0.48947
2.37 71.167 0.43459 0.43459
2.375 71.17 0.43025 0.43025
2.38 71.185 0.42159 0.42159
2.385 71.23 0.42755 0.42755
2.39 71.284 0.45716 0.45716
2.395 71.379 0.4491 0.4491
2.4 71.483 0.43229 0.43229
2.405 71.546 0.3933 0.3933
2.41 71.605 0.33864 0.33864
2.415 71.71 0.29135 0.29135
2.42 71.782 0.35723 0.35723
2.425 71.854 0.46254 0.46254
2.43 71.926 0.58639 0.58639
2.435 71.943 0.64519 0.64519
2.44 71.979 0.63318 0.63318
2.445 72.027 0.61804 0.61804
2.45 72.081 0.60256 0.60256
2.455 72.12 0.56022 0.56022
2.46 72.175 0.5354 0.5354
2.465 72.229 0.52912 0.52912
2.47 72.305 0.53374 0.53374
2.475 72.394 0.5433 0.5433
2.48 72.447 0.48022 0.48022
2.485 72.499 0.43261 0.43261
2.49 72.545 0.39798 0.39798
2.495 72.58 0.3684 0.3684
2.5 72.61 0.36494 0.36494
2.505 72.627 0.39674 0.39674
2.51 72.657 0.44598 0.44598
2.515 72.675 0.49157 0.49157
2.52 72.742 0.51654 0.51654
2.525 72.867 0.47659 0.47659
2.53 72.98 0.4347 0.4347
2.535 73.087 0.39926 0.39926
2.54 73.226 0.36566 0.36566
2.545 73.333 0.3916 0.3916
2.55 73.437 0.46073 0.46073
2.555 73.584 0.53258 0.53258
2.56 73.746 0.59323 0.59323
2.565 73.894 0.58196 0.58196
2.57 74.037 0.60367 0.60367
2.575 74.134 0.611 0.611
2.58 74.185 0.57658 0.57658
2.585 74.211 0.54325 0.54325
2.59 74.247 0.49628 0.49628
2.595 74.316 0.46344 0.46344
2.6 74.406 0.45676 0.45676
2.605 74.477 0.45432 0.45432
2.61 74.53 0.49347 0.49347
2.615 74.56 0.51788 0.51788
2.62 74.559 0.51109 0.51109
2.625 74.603 0.49207 0.49207
2.63 74.638 0.52527 0.52527
2.635 74.679 0.59516 0.59516
2.64 74.741 0.69843 0.69843
2.645 74.798 0.80112 0.80112
2.65 74.859 0.83274 0.83274
2.655 74.929 0.84839 0.84839
2.66 75 0.86619 0.86619
2.665 75.067 0.88033 0.88033
2.67 75.092 0.87337 0.87337
2.675 75.128 0.86327 0.86327
2.68 75.179 0.88687 0.88687
2.685 75.233 0.93277 0.93277
2.69 75.355 0.9399 0.9399
2.695 75.479 0.93747 0.93747
2.7 75.591 0.92055 0.92055
2.705 75.663 0.86786 0.86786
2.71 75.722 0.8382 0.8382
2.715 75.758 0.85104 0.85104
2.72 75.786 0.85693 0.85693
2.725 75.815 0.85161 0.85161
2.73 75.852 0.84669 0.84669
2.735 75.905 0.8181 0.8181
2.74 75.959 0.79269 0.79269
2.745 76.037 0.79535 0.79535
2.75 76.124 0.79403 0.79403
2.755 76.173 0.81156 0.81156
2.76 76.209 0.83949 0.83949
2.765 76.245 0.8693 0.8693
2.77 76.281 0.90081 0.90081
2.775 76.338 0.93799 0.93799
2.78 76.428 0.95856 0.95856
2.785 76.518 0.98281 0.98281
2.79 76.607 1.0104 1.0104
2.795 76.713 1.0357 1.0357
2.8 76.787 1.0518 1.0518
2.805 76.848 1.065 1.065
2.81 76.9 1.0721 1.0721
2.815 76.933 1.0757 1.0757
2.82 76.953 1.05 1.05
2.825 76.988 1.0212 1.0212
2.83 77.022 1.0015 1.0015
2.835 77.061 0.99314 0.99314
2.84 77.136 0.9721 0.9721
2.845 77.19 0.9542 0.9542
2.85 77.286 0.99255 0.99255
2.855 77.376 1.0418 1.0418
2.86 77.44 1.1444 1.1444
2.865 77.495 1.2687 1.2687
2.87 77.515 1.3384 1.3384
2.875 77.516 1.3778 1.3778
2.88 77.52 1.3816 1.3816
2.885 77.556 1.3177 1.3177
2.89 77.607 1.2806 1.2806
2.895 77.699 1.2833 1.2833
2.9 77.815 1.3015 1.3015
2.905 77.964 1.3347 1.3347
2.91 78.122 1.3599 1.3599
2.915 78.257 1.3573 1.3573
2.92 78.381 1.3535 1.3535
2.925 78.496 1.375 1.375
2.93 78.621 1.397 1.397
2.935 78.729 1.4033 1.4033
2.94 78.818 1.414 1.414
2.945 78.868 1.4119 1.4119
2.95 78.868 1.4119 1.4119
2.955 78.868 1.4119 1.4119
2.96 78.902 1.414 1.414
2.965 78.954 1.4166 1.4166
2.97 79.041 1.3985 1.3985
2.975 79.135 1.3913 1.3913
2.98 79.241 1.3968 1.3968
2.985 79.34 1.4046 1.4046
2.99 79.41 1.4416 1.4416
2.995 79.48 1.4807 1.4807
3 79.504 1.4848 1.4848
3.005 79.485 1.4632 1.4632
3.01 79.461 1.4471 1.4471
3.015 79.425 1.4342 1.4342
3.02 79.396 1.427 1.427
3.025 79.396 1.427 1.427
3.03 79.415 1.4367 1.4367
3.035 79.451 1.4514 1.4514
3.04 79.51 1.4929 1.4929
3.045 79.616 1.5535 1.5535
3.05 79.709 1.6081 1.6081
3.055 79.814 1.6669 1.6669
3.06 79.905 1.7106 1.7106
3.065 79.976 1.7352 1.7352
3.07 80.054 1.7666 1.7666
3.075 80.142 1.8045 1.8045
3.08 80.231 1.8462 1.8462
3.085 80.323 1.8971 1.8971
3.09 80.393 1.9377 1.9377
3.095 80.457 1.9286 1.9286
3.1 80.475 1.8891 1.8891
3.105 80.504 1.87 1.87
3.11 80.522 1.8584 1.8584
3.115 80.532 1.854 1.854
3.12 80.603 1.8679 1.8679
3.125 80.663 1.8732 1.8732
3.13 80.751 1.876 1.876
3.135 80.841 1.9059 1.9059
3.14 80.894 1.9803 1.9803
3.145 80.939 2.0445 2.0445
3.15 80.963 2.096 2.096
3.155 80.978 2.1379 2.1379
3.16 81.026 2.1165 2.1165
3.165 81.079 2.1007 2.1007
3.17 81.149 2.1075 2.1075
3.175 81.22 2.1168 2.1168
3.18 81.252 2.1909 2.1909
3.185 81.27 2.2634 2.2634
3.19 81.298 2.3352 2.3352
3.195 81.37 2.4073 2.4073
3.2 81.469 2.4567 2.4567
3.205 81.559 2.487 2.487
3.21 81.637 2.5095 2.5095
3.215 81.655 2.5111 2.5111
3.22 81.678 2.5012 2.5012
3.225 81.73 2.4766 2.4766
3.23 81.783 2.4534 2.4534
3.235 81.847 2.4335 2.4335
3.24 81.914 2.4244 2.4244
3.245 81.975 2.5045 2.5045
3.25 82.045 2.5954 2.5954
3.255 82.125 2.7012 2.7012
3.26 82.192 2.8057 2.8057
3.265 82.225 2.8394 2.8394
3.27 82.189 2.8044 2.8044
3.275 82.172 2.7905 2.7905
3.28 82.172 2.7921 2.7921
3.285 82.225 2.7614 2.7614
3.29 82.367 2.7562 2.7562
3.295 82.475 2.7135 2.7135
3.3 82.562 2.6512 2.6512
3.305 82.626 2.6124 2.6124
3.31 82.678 2.6408 2.6408
3.315 82.739 2.6833 2.6833
3.32 82.799 2.7359 2.7359
3.325 82.859 2.7912 2.7912
3.33 82.892 2.8083 2.8083
3.335 82.911 2.8115 2.8115
3.34 82.972 2.8424 2.8424
3.345 83.044 2.8771 2.8771
3.35 83.094 2.943 2.943
3.355 83.129 3.0042 3.0042
3.36 83.139 3.0427 3.0427
3.365 83.157 3.0833 3.0833
3.37 83.207 3.1061 3.1061
3.375 83.278 3.1321 3.1321
3.38 83.362 3.1697 3.1697
3.385 83.45 3.2137 3.2137
3.39 83.505 3.2316 3.2316
3.395 83.592 3.2373 3.2373
3.4 83.665 3.236 3.236
3.405 83.699 3.2114 3.2114
3.41 83.73 3.1842 3.1842
3.415 83.771 3.1536 3.1536
3.42 83.808 3.1216 3.1216
3.425 83.886 3.1146 3.1146
3.43 83.971 3.1129 3.1129
3.435 83.985 3.1726 3.1726
3.44 83.985 3.2315 3.2315
3.445 83.967 3.2797 3.2797
3.45 83.931 3.3172 3.3172
3.455 83.97 3.3054 3.3054
3.46 84.023 3.2734 3.2734
3.465 84.111 3.2648 3.2648
3.47 84.235 3.282 3.282
3.475 84.365 3.3171 3.3171
3.48 84.504 3.3933 3.3933
3.485 84.613 3.4478 3.4478
3.49 84.662 3.464 3.464
3.495 84.679 3.4705 3.4705
3.5 84.649 3.4542 3.4542
3.505 84.615 3.4364 3.4364
3.51 84.629 3.4469 3.4469
3.515 84.663 3.4653 3.4653
3.52 84.681 3.4771 3.4771
3.525 84.699 3.4904 3.4904
3.53 84.687 3.4828 3.4828
3.535 84.669 3.4725 3.4725
3.54 84.709 3.4214 3.4214
3.545 84.761 3.3505 3.3505
3.55 84.859 3.3096 3.3096
3.555 85 3.2972 3.2972
3.56 85.123 3.3236 3.3236
3.565 85.227 3.4402 3.4402
3.57 85.309 3.5395 3.5395
3.575 85.351 3.6092 3.6092
3.58 85.376 3.6667 3.6667
3.585 85.406 3.6877 3.6877
3.59 85.441 3.7138 3.7138
3.595 85.486 3.7495 3.7495
3.6 85.528 3.7814 3.7814
3.605 85.627 3.7836 3.7836
3.61 85.717 3.7763 3.7763
3.615 85.814 3.7743 3.7743
3.62 85.939 3.7898 3.7898
3.625 86.038 3.8598 3.8598
3.63 86.111 3.944 3.944
3.635 86.172 4.0221 4.0221
3.64 86.191 4.074 4.074
3.645 86.194 4.0919 4.0919
3.65 86.195 4.0432 4.0432
3.655 86.203 3.9992 3.9992
3.66 86.209 3.9555 3.9555
3.665 86.212 3.9153 3.9153
3.67 86.225 3.9232 3.9232
3.675 86.241 3.9335 3.9335
3.68 86.223 3.919 3.919
3.685 86.202 3.9047 3.9047
3.69 86.172 3.8852 3.8852
3.695 86.154 3.8722 3.8722
3.7 86.189 3.8955 3.8955
3.705 86.261 3.9391 3.9391
3.71 86.345 3.9565 3.9565
3.715 86.434 3.9639 3.9639
3.72 86.5 3.9534 3.9534
3.725 86.535 3.9247 3.9247
3.73 86.559 3.9206 3.9206
3.735 86.559 3.9706 3.9706
3.74 86.544 4.0095 4.0095
3.745 86.51 4.0353 4.0353
3.75 86.485 4.0573 4.0573
3.755 86.504 4.0156 4.0156
3.76 86.524 3.9773 3.9773
3.765 86.578 3.959 3.959
3.77 86.626 3.9388 3.9388
3.775 86.637 3.8984 3.8984
3.78 86.637 3.8496 3.8496
3.785 86.671 3.8198 3.8198
3.79 86.725 3.8017 3.8017
3.795 86.804 3.8306 3.8306
3.8 86.912 3.8958 3.8958
